# NAME           	C1M825
# WAVELENGTH_UNIT	nm
# DETECTOR       	photon
# COMPNAME       	C1M825
#
## WAVELENGTH	None	nm
## THROUGHPUT	None	filter throughput definition
#
WAVELENGTH,THROUGHPUT
7.990000000000000000e+02,0.000000000000000000e+00
7.995000000000000000e+02,0.000000000000000000e+00
8.000000000000000000e+02,0.000000000000000000e+00
8.005000000000000000e+02,0.000000000000000000e+00
8.010000000000000000e+02,0.000000000000000000e+00
8.015000000000000000e+02,0.000000000000000000e+00
8.020000000000000000e+02,0.000000000000000000e+00
8.025000000000000000e+02,1.399999999999999986e-03
8.030000000000000000e+02,5.599999999999999943e-03
8.035000000000000000e+02,1.409999999999999969e-02
8.040000000000000000e+02,2.809999999999999998e-02
8.045000000000000000e+02,4.920000000000000068e-02
8.050000000000000000e+02,7.870000000000000606e-02
8.055000000000000000e+02,1.180999999999999966e-01
8.060000000000000000e+02,1.688000000000000056e-01
8.065000000000000000e+02,2.291999999999999871e-01
8.070000000000000000e+02,2.980999999999999761e-01
8.075000000000000000e+02,3.726999999999999758e-01
8.080000000000000000e+02,4.500000000000000111e-01
8.085000000000000000e+02,5.272999999999999909e-01
8.090000000000000000e+02,6.018999999999999906e-01
8.095000000000000000e+02,6.707999999999999519e-01
8.100000000000000000e+02,7.311999999999999611e-01
8.105000000000000000e+02,7.819000000000000394e-01
8.110000000000000000e+02,8.212000000000000410e-01
8.115000000000000000e+02,8.508000000000000007e-01
8.120000000000000000e+02,8.719000000000000083e-01
8.125000000000000000e+02,8.859000000000000208e-01
8.130000000000000000e+02,8.943999999999999728e-01
8.135000000000000000e+02,8.985999999999999543e-01
8.140000000000000000e+02,9.000000000000000222e-01
8.145000000000000000e+02,9.000000000000000222e-01
8.150000000000000000e+02,9.000000000000000222e-01
8.155000000000000000e+02,9.000000000000000222e-01
8.160000000000000000e+02,9.000000000000000222e-01
8.165000000000000000e+02,9.000000000000000222e-01
8.170000000000000000e+02,9.000000000000000222e-01
8.175000000000000000e+02,9.000000000000000222e-01
8.180000000000000000e+02,9.000000000000000222e-01
8.185000000000000000e+02,9.000000000000000222e-01
8.190000000000000000e+02,9.000000000000000222e-01
8.195000000000000000e+02,9.000000000000000222e-01
8.200000000000000000e+02,9.000000000000000222e-01
8.205000000000000000e+02,9.000000000000000222e-01
8.210000000000000000e+02,9.000000000000000222e-01
8.215000000000000000e+02,9.000000000000000222e-01
8.220000000000000000e+02,9.000000000000000222e-01
8.225000000000000000e+02,9.000000000000000222e-01
8.230000000000000000e+02,9.000000000000000222e-01
8.235000000000000000e+02,9.000000000000000222e-01
8.240000000000000000e+02,9.000000000000000222e-01
8.245000000000000000e+02,9.000000000000000222e-01
8.250000000000000000e+02,9.000000000000000222e-01
8.255000000000000000e+02,9.000000000000000222e-01
8.260000000000000000e+02,9.000000000000000222e-01
8.265000000000000000e+02,9.000000000000000222e-01
8.270000000000000000e+02,9.000000000000000222e-01
8.275000000000000000e+02,9.000000000000000222e-01
8.280000000000000000e+02,9.000000000000000222e-01
8.285000000000000000e+02,9.000000000000000222e-01
8.290000000000000000e+02,9.000000000000000222e-01
8.295000000000000000e+02,9.000000000000000222e-01
8.300000000000000000e+02,9.000000000000000222e-01
8.305000000000000000e+02,9.000000000000000222e-01
8.310000000000000000e+02,9.000000000000000222e-01
8.315000000000000000e+02,9.000000000000000222e-01
8.320000000000000000e+02,9.000000000000000222e-01
8.325000000000000000e+02,9.000000000000000222e-01
8.330000000000000000e+02,9.000000000000000222e-01
8.335000000000000000e+02,9.000000000000000222e-01
8.340000000000000000e+02,9.000000000000000222e-01
8.345000000000000000e+02,9.000000000000000222e-01
8.350000000000000000e+02,9.000000000000000222e-01
8.355000000000000000e+02,9.000000000000000222e-01
8.360000000000000000e+02,9.000000000000000222e-01
8.365000000000000000e+02,8.985999999999999543e-01
8.370000000000000000e+02,8.943999999999999728e-01
8.375000000000000000e+02,8.859000000000000208e-01
8.380000000000000000e+02,8.719000000000000083e-01
8.385000000000000000e+02,8.508000000000000007e-01
8.390000000000000000e+02,8.212000000000000410e-01
8.395000000000000000e+02,7.819000000000000394e-01
8.400000000000000000e+02,7.311999999999999611e-01
8.405000000000000000e+02,6.707999999999999519e-01
8.410000000000000000e+02,6.018999999999999906e-01
8.415000000000000000e+02,5.272999999999999909e-01
8.420000000000000000e+02,4.500000000000000111e-01
8.425000000000000000e+02,3.726999999999999758e-01
8.430000000000000000e+02,2.980999999999999761e-01
8.435000000000000000e+02,2.291999999999999871e-01
8.440000000000000000e+02,1.688000000000000056e-01
8.445000000000000000e+02,1.180999999999999966e-01
8.450000000000000000e+02,7.870000000000000606e-02
8.455000000000000000e+02,4.920000000000000068e-02
8.460000000000000000e+02,2.809999999999999998e-02
8.465000000000000000e+02,1.409999999999999969e-02
8.470000000000000000e+02,5.599999999999999943e-03
8.475000000000000000e+02,1.399999999999999986e-03
8.480000000000000000e+02,0.000000000000000000e+00
8.485000000000000000e+02,0.000000000000000000e+00
8.490000000000000000e+02,0.000000000000000000e+00
8.495000000000000000e+02,0.000000000000000000e+00
8.500000000000000000e+02,0.000000000000000000e+00
8.505000000000000000e+02,0.000000000000000000e+00
8.510000000000000000e+02,0.000000000000000000e+00
